  
  Data: Real and imaginary indices of refraction of sulfuric acid
  solutions at 25, 38, 50, 75, 84.5, and 95.6% H2SO4, by weight.

  Reference: K. F. Palmer and Dudley Williams, Optical constants of 
  sulfuric acid; Application to the clouds of Venus?, Applied Optics, 
  vol. 14, pgs. 208-219, 1975.

  Format: 227 lines of real indices (2x,f6.0,2x,f6.3,2x,6(2x,f5.3))
     227 lines of imaginary indices (2x,f6.0,2x,f6.3,2x,6(1x,e9.2))


  Real indices of refraction for sulfuric acid solutions

    cm-1  microns   25%    38%    50%    75%    84.5%  95.6%

    400.  25.000    1.700  1.749  1.806  1.930  1.938  1.896
    410.  24.390    1.696  1.744  1.808  1.939  1.954  1.880
    430.  23.256    1.692  1.736  1.783  1.918  1.905  1.822
    440.  22.727    1.676  1.719  1.758  1.881  1.874  1.781
    450.  22.222    1.657  1.696  1.734  1.848  1.846  1.785
    470.  21.277    1.627  1.658  1.689  1.781  1.807  1.826
    480.  20.833    1.615  1.645  1.690  1.782  1.804  1.848
    490.  20.408    1.605  1.635  1.690  1.804  1.833  1.874
    500.  20.000    1.596  1.627  1.690  1.823  1.873  1.913
    510.  19.608    1.590  1.622  1.690  1.842  1.903  1.961
    530.  18.868    1.580  1.627  1.692  1.892  1.981  2.057
    540.  18.519    1.576  1.628  1.694  1.926  2.011  2.045
    550.  18.182    1.572  1.629  1.700  1.946  2.011  1.912
    560.  17.857    1.569  1.629  1.703  1.939  1.955  1.680
    570.  17.544    1.564  1.625  1.693  1.869  1.800  1.477
    580.  17.241    1.550  1.603  1.653  1.741  1.671  1.389
    590.  16.949    1.509  1.551  1.576  1.621  1.584  1.382
    600.  16.667    1.473  1.498  1.506  1.542  1.552  1.410
    620.  16.129    1.433  1.438  1.441  1.512  1.530  1.466
    630.  15.873    1.427  1.437  1.450  1.512  1.538  1.488
    650.  15.385    1.420  1.445  1.472  1.551  1.578  1.520
    670.  14.925    1.407  1.444  1.483  1.596  1.617  1.543
    680.  14.706    1.400  1.443  1.488  1.613  1.632  1.552
    700.  14.286    1.388  1.441  1.496  1.643  1.657  1.567
    720.  13.889    1.377  1.440  1.503  1.663  1.677  1.584
    740.  13.514    1.367  1.440  1.511  1.681  1.698  1.604
    760.  13.158    1.358  1.440  1.520  1.701  1.722  1.628
    780.  12.821    1.353  1.443  1.532  1.726  1.751  1.663
    790.  12.658    1.353  1.447  1.541  1.741  1.771  1.693
    800.  12.500    1.354  1.455  1.549  1.757  1.793  1.710
    820.  12.195    1.357  1.471  1.568  1.796  1.839  1.751
    840.  11.905    1.373  1.483  1.588  1.844  1.896  1.812
    850.  11.765    1.382  1.491  1.599  1.869  1.934  1.848
    870.  11.494    1.392  1.512  1.617  1.916  1.993  1.940
    874.  11.442    1.385  1.515  1.607  1.911  1.998  1.956
    880.  11.364    1.381  1.491  1.579  1.904  2.005  1.978
    890.  11.236    1.372  1.461  1.519  1.842  1.984  2.007
    900.  11.111    1.365  1.436  1.484  1.739  1.884  1.937
    910.  10.989    1.360  1.416  1.471  1.676  1.789  1.841
    920.  10.870    1.360  1.407  1.463  1.663  1.735  1.808
    930.  10.753    1.368  1.431  1.502  1.678  1.742  1.870
    940.  10.638    1.382  1.454  1.535  1.717  1.775  1.953
    950.  10.526    1.396  1.475  1.563  1.756  1.807  1.967
    960.  10.417    1.407  1.495  1.582  1.788  1.820  1.856
    963.  10.384    1.412  1.501  1.587  1.807  1.820  1.789
    970.  10.309    1.417  1.510  1.597  1.822  1.818  1.634
    980.  10.204    1.425  1.523  1.613  1.849  1.839  1.415
    990.  10.101    1.432  1.535  1.631  1.882  1.877  1.301
   1010.   9.901    1.441  1.549  1.650  1.947  1.954  1.372
   1020.   9.804    1.442  1.556  1.649  1.944  1.968  1.457
   1030.   9.709    1.438  1.557  1.644  1.907  1.937  1.527
   1040.   9.615    1.431  1.525  1.594  1.807  1.848  1.548
   1050.   9.524    1.398  1.460  1.509  1.702  1.749  1.548
   1060.   9.434    1.350  1.407  1.456  1.624  1.666  1.537
   1070.   9.346    1.346  1.396  1.433  1.589  1.625  1.548
   1080.   9.259    1.362  1.419  1.450  1.590  1.623  1.578
   1090.   9.174    1.377  1.434  1.471  1.626  1.647  1.617
   1100.   9.091    1.383  1.442  1.502  1.655  1.682  1.639
   1110.   9.009    1.387  1.452  1.523  1.669  1.682  1.654
   1120.   8.929    1.389  1.464  1.529  1.666  1.670  1.645
   1130.   8.850    1.391  1.473  1.529  1.643  1.633  1.632
   1150.   8.696    1.395  1.451  1.507  1.545  1.515  1.572
   1160.   8.621    1.393  1.435  1.483  1.479  1.456  1.516
   1170.   8.547    1.382  1.417  1.448  1.421  1.403  1.447
   1190.   8.403    1.329  1.353  1.369  1.320  1.308  1.300
   1210.   8.264    1.277  1.283  1.280  1.241  1.230  1.230
   1230.   8.130    1.238  1.222  1.218  1.179  1.179  1.217
   1240.   8.065    1.230  1.212  1.203  1.161  1.166  1.219
   1250.   8.000    1.233  1.214  1.197  1.151  1.153  1.218
   1270.   7.874    1.254  1.236  1.212  1.145  1.132  1.225
   1290.   7.752    1.271  1.258  1.239  1.144  1.116  1.244
   1310.   7.634    1.284  1.269  1.251  1.136  1.102  1.276
   1320.   7.576    1.288  1.275  1.255  1.133  1.100  1.292
   1340.   7.463    1.293  1.284  1.263  1.142  1.116  1.314
   1360.   7.353    1.297  1.290  1.272  1.173  1.156  1.245
   1370.   7.299    1.300  1.290  1.275  1.192  1.171  1.180
   1390.   7.194    1.304  1.297  1.285  1.222  1.197  1.057
   1410.   7.092    1.309  1.305  1.296  1.249  1.219  1.024
   1430.   6.993    1.313  1.313  1.307  1.272  1.246  1.092
   1450.   6.897    1.319  1.322  1.315  1.297  1.273  1.159
   1470.   6.803    1.325  1.327  1.325  1.308  1.299  1.209
   1490.   6.711    1.332  1.335  1.335  1.323  1.323  1.237
   1500.   6.667    1.335  1.339  1.340  1.331  1.335  1.252
   1510.   6.623    1.339  1.344  1.346  1.340  1.347  1.270
   1520.   6.579    1.342  1.349  1.352  1.351  1.360  1.285
   1530.   6.536    1.346  1.354  1.357  1.361  1.371  1.297
   1540.   6.494    1.351  1.360  1.363  1.368  1.378  1.305
   1560.   6.410    1.359  1.371  1.375  1.384  1.389  1.318
   1580.   6.329    1.368  1.380  1.386  1.399  1.400  1.322
   1600.   6.250    1.378  1.385  1.398  1.413  1.410  1.326
   1610.   6.211    1.379  1.387  1.403  1.422  1.416  1.329
   1620.   6.173    1.374  1.386  1.406  1.428  1.422  1.331
   1630.   6.135    1.365  1.381  1.402  1.434  1.427  1.333
   1640.   6.098    1.344  1.361  1.395  1.433  1.430  1.336
   1650.   6.061    1.321  1.349  1.379  1.430  1.429  1.339
   1660.   6.024    1.310  1.343  1.371  1.427  1.425  1.341
   1680.   5.952    1.299  1.335  1.361  1.420  1.413  1.347
   1700.   5.882    1.296  1.330  1.356  1.410  1.404  1.357
   1720.   5.814    1.298  1.327  1.352  1.392  1.394  1.365
   1740.   5.747    1.300  1.323  1.347  1.371  1.385  1.369
   1760.   5.682    1.300  1.317  1.340  1.361  1.377  1.371
   1770.   5.650    1.299  1.315  1.330  1.356  1.375  1.373
   1780.   5.618    1.299  1.314  1.319  1.350  1.374  1.375
   1800.   5.556    1.299  1.311  1.316  1.341  1.373  1.379
   1820.   5.495    1.301  1.310  1.316  1.337  1.373  1.384
   1840.   5.435    1.303  1.309  1.314  1.336  1.374  1.387
   1860.   5.376    1.306  1.310  1.315  1.336  1.375  1.393
   1880.   5.319    1.309  1.310  1.315  1.339  1.378  1.397
   1900.   5.263    1.311  1.312  1.316  1.342  1.385  1.403
   1930.   5.181    1.315  1.314  1.318  1.347  1.393  1.409
   1960.   5.102    1.317  1.318  1.321  1.353  1.401  1.416
   2020.   4.950    1.324  1.324  1.329  1.366  1.414  1.426
   2080.   4.808    1.330  1.330  1.338  1.379  1.423  1.434
   2120.   4.717    1.333  1.335  1.343  1.384  1.426  1.438
   2180.   4.587    1.337  1.340  1.348  1.386  1.422  1.441
   2240.   4.464    1.340  1.343  1.350  1.384  1.416  1.446
   2290.   4.367    1.341  1.345  1.352  1.386  1.419  1.457
   2330.   4.292    1.343  1.349  1.357  1.395  1.425  1.470
   2340.   4.274    1.344  1.350  1.357  1.397  1.428  1.472
   2370.   4.219    1.347  1.354  1.359  1.405  1.436  1.461
   2410.   4.149    1.350  1.356  1.361  1.399  1.430  1.446
   2450.   4.082    1.353  1.356  1.362  1.400  1.425  1.438
   2500.   4.000    1.355  1.358  1.363  1.398  1.418  1.435
   2530.   3.953    1.357  1.359  1.363  1.396  1.416  1.436
   2560.   3.906    1.361  1.361  1.364  1.395  1.414  1.438
   2590.   3.861    1.364  1.363  1.365  1.395  1.412  1.437
   2600.   3.846    1.364  1.364  1.365  1.395  1.410  1.437
   2620.   3.817    1.367  1.366  1.366  1.396  1.406  1.438
   2660.   3.759    1.372  1.370  1.369  1.396  1.403  1.445
   2710.   3.690    1.377  1.375  1.374  1.397  1.402  1.448
   2760.   3.623    1.384  1.379  1.378  1.394  1.399  1.444
   2810.   3.559    1.391  1.383  1.379  1.388  1.388  1.431
   2880.   3.472    1.400  1.389  1.377  1.370  1.361  1.403
   2930.   3.413    1.408  1.393  1.375  1.357  1.341  1.377
   2990.   3.344    1.418  1.397  1.373  1.341  1.321  1.347
   3050.   3.279    1.428  1.401  1.371  1.325  1.306  1.315
   3150.   3.175    1.431  1.400  1.369  1.306  1.283  1.274
   3250.   3.077    1.408  1.380  1.357  1.296  1.273  1.260
   3310.   3.021    1.380  1.359  1.343  1.294  1.272  1.263
   3350.   2.985    1.354  1.342  1.330  1.292  1.273  1.267
   3400.   2.941    1.313  1.312  1.308  1.288  1.276  1.276
   3430.   2.915    1.285  1.290  1.291  1.284  1.277  1.283
   3470.   2.882    1.243  1.256  1.267  1.277  1.282  1.291
   3520.   2.841    1.204  1.222  1.238  1.273  1.289  1.303
   3530.   2.833    1.198  1.216  1.233  1.272  1.290  1.305
   3610.   2.770    1.170  1.191  1.215  1.277  1.304  1.327
   3620.   2.762    1.171  1.190  1.216  1.279  1.307  1.329
   3670.   2.725    1.183  1.207  1.231  1.293  1.320  1.339
   3720.   2.688    1.216  1.234  1.252  1.308  1.330  1.345
   3800.   2.632    1.250  1.266  1.282  1.320  1.341  1.353
   3900.   2.564    1.271  1.284  1.299  1.332  1.348  1.360
   4000.   2.500    1.286  1.300  1.311  1.344  1.358  1.368
   4100.   2.439    1.296  1.309  1.321  1.352  1.363  1.372
   4200.   2.381    1.304  1.316  1.328  1.358  1.368  1.376
   4300.   2.326    1.310  1.321  1.333  1.362  1.374  1.379
   4400.   2.273    1.315  1.326  1.338  1.367  1.378  1.383
   4500.   2.222    1.319  1.330  1.342  1.370  1.382  1.385
   4600.   2.174    1.323  1.333  1.346  1.374  1.384  1.388
   4700.   2.128    1.326  1.336  1.348  1.377  1.388  1.391
   4800.   2.083    1.328  1.339  1.351  1.380  1.390  1.393
   4900.   2.041    1.329  1.341  1.353  1.382  1.392  1.394
   5000.   2.000    1.331  1.343  1.355  1.384  1.392  1.396
   5100.   1.961    1.332  1.345  1.357  1.386  1.394  1.398
   5200.   1.923    1.334  1.346  1.358  1.388  1.396  1.399
   5300.   1.887    1.335  1.347  1.359  1.389  1.397  1.400
   5400.   1.852    1.336  1.348  1.361  1.391  1.398  1.401
   5500.   1.818    1.338  1.350  1.362  1.392  1.399  1.403
   5600.   1.786    1.339  1.351  1.364  1.393  1.400  1.404
   5700.   1.754    1.340  1.352  1.365  1.394  1.401  1.404
   5800.   1.724    1.341  1.353  1.366  1.396  1.402  1.405
   5900.   1.695    1.342  1.355  1.367  1.397  1.403  1.406
   6000.   1.667    1.342  1.356  1.368  1.398  1.404  1.407
   6100.   1.639    1.343  1.357  1.369  1.398  1.404  1.408
   6200.   1.613    1.344  1.358  1.370  1.399  1.405  1.409
   6300.   1.587    1.345  1.358  1.371  1.400  1.406  1.410
   6400.   1.562    1.346  1.359  1.372  1.402  1.407  1.410
   6500.   1.538    1.346  1.360  1.373  1.403  1.408  1.411
   6600.   1.515    1.346  1.360  1.373  1.403  1.409  1.412
   6700.   1.493    1.347  1.361  1.374  1.404  1.410  1.413
   6800.   1.471    1.348  1.362  1.375  1.405  1.410  1.414
   6900.   1.449    1.348  1.363  1.376  1.406  1.411  1.415
   7000.   1.429    1.349  1.363  1.377  1.406  1.411  1.416
   7100.   1.408    1.349  1.364  1.377  1.407  1.412  1.416
   7200.   1.389    1.350  1.364  1.377  1.408  1.413  1.416
   7300.   1.370    1.351  1.365  1.378  1.409  1.413  1.417
   7400.   1.351    1.351  1.366  1.378  1.410  1.414  1.418
   7500.   1.333    1.351  1.366  1.379  1.410  1.415  1.419
   7600.   1.316    1.352  1.367  1.380  1.411  1.416  1.420
   7700.   1.299    1.352  1.367  1.380  1.411  1.416  1.420
   7800.   1.282    1.353  1.368  1.381  1.412  1.416  1.421
   7900.   1.266    1.353  1.368  1.382  1.413  1.417  1.422
   8000.   1.250    1.354  1.368  1.382  1.413  1.418  1.422
   8200.   1.220    1.355  1.369  1.383  1.415  1.419  1.422
   8400.   1.190    1.355  1.369  1.384  1.416  1.420  1.423
   8600.   1.163    1.356  1.371  1.384  1.416  1.422  1.423
   8800.   1.136    1.357  1.371  1.385  1.417  1.422  1.424
   9000.   1.111    1.357  1.372  1.386  1.418  1.423  1.425
   9200.   1.087    1.358  1.373  1.387  1.419  1.424  1.425
   9400.   1.064    1.358  1.373  1.387  1.420  1.425  1.426
   9600.   1.042    1.358  1.374  1.388  1.421  1.425  1.426
   9800.   1.020    1.358  1.375  1.389  1.421  1.426  1.427
  10000.   1.000    1.359  1.375  1.389  1.422  1.427  1.427
  10200.    .980    1.359  1.376  1.390  1.422  1.427  1.427
  10400.    .962    1.360  1.377  1.390  1.423  1.428  1.427
  10600.    .943    1.360  1.377  1.391  1.423  1.428  1.427
  10800.    .926    1.360  1.377  1.391  1.424  1.429  1.428
  11000.    .909    1.361  1.377  1.391  1.424  1.429  1.428
  11200.    .893    1.361  1.378  1.392  1.425  1.430  1.428
  11400.    .877    1.361  1.378  1.392  1.425  1.430  1.429
  11600.    .862    1.361  1.379  1.392  1.425  1.431  1.429
  11800.    .847    1.361  1.379  1.392  1.426  1.432  1.430
  12000.    .833    1.362  1.380  1.392  1.426  1.432  1.430
  12200.    .820    1.362  1.380  1.392  1.427  1.432  1.430
  12400.    .806    1.362  1.380  1.392  1.427  1.432  1.430
  12600.    .794    1.362  1.380  1.393  1.427  1.433  1.430
  12800.    .781    1.362  1.380  1.393  1.427  1.433  1.431
  13000.    .769    1.362  1.381  1.393  1.427  1.434  1.431
  13200.    .758    1.362  1.381  1.393  1.427  1.434  1.431
  13400.    .746    1.362  1.381  1.393  1.427  1.434  1.431
  13600.    .735    1.362  1.381  1.393  1.427  1.435  1.431
  13800.    .725    1.363  1.381  1.394  1.427  1.435  1.432
  14000.    .714    1.363  1.381  1.394  1.427  1.435  1.432
  14250.    .702    1.363  1.382  1.394  1.428  1.436  1.432
  18000.    .556    1.366  1.384  1.397  1.431  1.438  1.434
  22250.    .449    1.369  1.387  1.402  1.432  1.442  1.438
  22450.    .445    1.373  1.392  1.408  1.438  1.448  1.443
  27800.    .360    1.383  1.407  1.421  1.452  1.463  1.459

  Imaginary indices of refraction for sulfuric acid solutions

    cm-1  microns   25%       38%       50%       75%       84.5%     95.6%

    400.  25.000    3.03E-01  3.27E-01  3.19E-01  2.00E-01  9.90E-02  2.12E-01
    410.  24.390    3.05E-01  3.28E-01  3.28E-01  2.26E-01  1.44E-01  2.45E-01
    430.  23.256    3.29E-01  3.56E-01  3.71E-01  3.00E-01  2.19E-01  2.74E-01
    440.  22.727    3.43E-01  3.72E-01  3.80E-01  3.20E-01  2.31E-01  2.48E-01
    450.  22.222    3.51E-01  3.78E-01  3.84E-01  3.29E-01  2.29E-01  2.18E-01
    470.  21.277    3.54E-01  3.74E-01  3.61E-01  2.90E-01  1.99E-01  1.93E-01
    480.  20.833    3.53E-01  3.68E-01  3.50E-01  2.57E-01  1.69E-01  1.94E-01
    490.  20.408    3.51E-01  3.63E-01  3.45E-01  2.40E-01  1.45E-01  1.97E-01
    500.  20.000    3.49E-01  3.57E-01  3.44E-01  2.35E-01  1.46E-01  2.09E-01
    510.  19.608    3.49E-01  3.49E-01  3.44E-01  2.38E-01  1.61E-01  2.41E-01
    530.  18.868    3.52E-01  3.48E-01  3.53E-01  2.61E-01  2.16E-01  4.05E-01
    540.  18.519    3.55E-01  3.54E-01  3.60E-01  2.99E-01  2.91E-01  5.69E-01
    550.  18.182    3.60E-01  3.64E-01  3.75E-01  3.62E-01  3.91E-01  7.40E-01
    560.  17.857    3.68E-01  3.79E-01  4.02E-01  4.57E-01  5.20E-01  8.02E-01
    570.  17.544    3.83E-01  4.04E-01  4.43E-01  5.54E-01  5.75E-01  6.99E-01
    580.  17.241    4.12E-01  4.43E-01  4.96E-01  5.94E-01  5.49E-01  5.40E-01
    590.  16.949    4.22E-01  4.60E-01  5.09E-01  5.64E-01  4.68E-01  4.15E-01
    600.  16.667    4.15E-01  4.48E-01  4.79E-01  4.79E-01  4.00E-01  3.40E-01
    620.  16.129    3.74E-01  3.81E-01  3.79E-01  3.52E-01  2.90E-01  2.53E-01
    630.  15.873    3.58E-01  3.50E-01  3.38E-01  2.99E-01  2.44E-01  2.32E-01
    650.  15.385    3.40E-01  3.22E-01  2.99E-01  2.21E-01  1.75E-01  2.03E-01
    670.  14.925    3.29E-01  3.04E-01  2.77E-01  1.91E-01  1.51E-01  1.83E-01
    680.  14.706    3.22E-01  2.95E-01  2.68E-01  1.83E-01  1.44E-01  1.76E-01
    700.  14.286    3.09E-01  2.80E-01  2.54E-01  1.73E-01  1.34E-01  1.60E-01
    720.  13.889    2.94E-01  2.66E-01  2.42E-01  1.71E-01  1.25E-01  1.43E-01
    740.  13.514    2.79E-01  2.53E-01  2.30E-01  1.65E-01  1.16E-01  1.26E-01
    760.  13.158    2.62E-01  2.40E-01  2.21E-01  1.60E-01  1.08E-01  1.10E-01
    780.  12.821    2.42E-01  2.26E-01  2.13E-01  1.57E-01  1.00E-01  9.00E-02
    790.  12.658    2.33E-01  2.18E-01  2.10E-01  1.57E-01  9.90E-02  9.00E-02
    800.  12.500    2.24E-01  2.11E-01  2.10E-01  1.58E-01  1.00E-01  9.40E-02
    820.  12.195    2.06E-01  2.09E-01  2.15E-01  1.68E-01  1.12E-01  9.60E-02
    840.  11.905    1.91E-01  2.12E-01  2.27E-01  1.94E-01  1.30E-01  1.07E-01
    850.  11.765    1.90E-01  2.16E-01  2.38E-01  2.16E-01  1.58E-01  1.21E-01
    870.  11.494    2.05E-01  2.40E-01  3.03E-01  3.13E-01  2.47E-01  1.81E-01
    874.  11.442    2.08E-01  2.59E-01  3.38E-01  3.41E-01  2.77E-01  2.06E-01
    880.  11.364    2.09E-01  2.75E-01  3.45E-01  3.86E-01  3.21E-01  2.43E-01
    890.  11.236    2.07E-01  2.77E-01  3.38E-01  4.64E-01  4.16E-01  3.56E-01
    900.  11.111    2.00E-01  2.69E-01  3.11E-01  4.63E-01  4.83E-01  4.58E-01
    910.  10.989    1.88E-01  2.47E-01  2.79E-01  4.10E-01  4.66E-01  4.60E-01
    920.  10.870    1.73E-01  2.07E-01  2.28E-01  3.51E-01  4.02E-01  4.07E-01
    930.  10.753    1.60E-01  1.84E-01  2.00E-01  3.01E-01  3.48E-01  3.91E-01
    940.  10.638    1.52E-01  1.73E-01  1.92E-01  2.75E-01  3.23E-01  4.68E-01
    950.  10.526    1.51E-01  1.72E-01  1.99E-01  2.71E-01  3.28E-01  6.27E-01
    960.  10.417    1.54E-01  1.76E-01  2.10E-01  2.77E-01  3.46E-01  7.95E-01
    963.  10.384    1.57E-01  1.81E-01  2.15E-01  2.82E-01  3.49E-01  8.33E-01
    970.  10.309    1.58E-01  1.86E-01  2.22E-01  2.92E-01  3.47E-01  8.69E-01
    980.  10.204    1.65E-01  1.97E-01  2.35E-01  3.11E-01  3.41E-01  8.09E-01
    990.  10.101    1.73E-01  2.12E-01  2.55E-01  3.38E-01  3.53E-01  6.24E-01
   1010.   9.901    1.95E-01  2.47E-01  3.14E-01  4.53E-01  4.43E-01  3.50E-01
   1020.   9.804    2.09E-01  2.72E-01  3.49E-01  5.38E-01  5.28E-01  3.11E-01
   1030.   9.709    2.26E-01  3.14E-01  4.02E-01  6.37E-01  6.30E-01  3.26E-01
   1040.   9.615    2.46E-01  3.64E-01  4.63E-01  7.08E-01  7.07E-01  3.52E-01
   1050.   9.524    2.73E-01  3.76E-01  4.62E-01  7.11E-01  7.24E-01  3.73E-01
   1060.   9.434    2.45E-01  3.39E-01  4.28E-01  6.68E-01  6.93E-01  3.66E-01
   1070.   9.346    2.13E-01  2.97E-01  3.70E-01  6.12E-01  6.39E-01  3.47E-01
   1080.   9.259    1.94E-01  2.66E-01  3.37E-01  5.60E-01  5.94E-01  3.42E-01
   1090.   9.174    1.93E-01  2.65E-01  3.14E-01  5.40E-01  5.74E-01  3.60E-01
   1100.   9.091    1.97E-01  2.67E-01  3.18E-01  5.56E-01  6.03E-01  3.91E-01
   1110.   9.009    2.01E-01  2.69E-01  3.35E-01  5.90E-01  6.34E-01  4.39E-01
   1120.   8.929    2.06E-01  2.80E-01  3.60E-01  6.34E-01  6.86E-01  4.81E-01
   1130.   8.850    2.11E-01  3.02E-01  3.84E-01  6.81E-01  7.31E-01  5.24E-01
   1150.   8.696    2.29E-01  3.44E-01  4.36E-01  7.55E-01  7.77E-01  6.15E-01
   1160.   8.621    2.46E-01  3.60E-01  4.65E-01  7.61E-01  7.73E-01  6.51E-01
   1170.   8.547    2.68E-01  3.76E-01  4.85E-01  7.58E-01  7.64E-01  6.69E-01
   1190.   8.403    2.85E-01  4.00E-01  4.98E-01  7.19E-01  7.26E-01  6.43E-01
   1210.   8.264    2.70E-01  3.81E-01  4.73E-01  6.63E-01  6.66E-01  5.32E-01
   1230.   8.130    2.28E-01  3.22E-01  4.09E-01  5.93E-01  5.90E-01  4.53E-01
   1240.   8.065    1.99E-01  2.85E-01  3.70E-01  5.47E-01  5.57E-01  4.27E-01
   1250.   8.000    1.73E-01  2.52E-01  3.29E-01  5.13E-01  5.27E-01  4.00E-01
   1270.   7.874    1.43E-01  2.06E-01  2.68E-01  4.45E-01  4.71E-01  3.58E-01
   1290.   7.752    1.27E-01  1.84E-01  2.39E-01  3.97E-01  4.12E-01  3.21E-01
   1310.   7.634    1.21E-01  1.72E-01  2.22E-01  3.51E-01  3.51E-01  3.08E-01
   1320.   7.576    1.19E-01  1.66E-01  2.14E-01  3.23E-01  3.18E-01  3.13E-01
   1340.   7.463    1.15E-01  1.57E-01  1.97E-01  2.62E-01  2.42E-01  3.62E-01
   1360.   7.353    1.09E-01  1.52E-01  1.82E-01  2.11E-01  2.01E-01  4.31E-01
   1370.   7.299    1.07E-01  1.46E-01  1.75E-01  1.95E-01  1.87E-01  4.37E-01
   1390.   7.194    1.02E-01  1.35E-01  1.61E-01  1.73E-01  1.61E-01  3.34E-01
   1410.   7.092    9.70E-02  1.27E-01  1.50E-01  1.58E-01  1.38E-01  2.26E-01
   1430.   6.993    9.20E-02  1.21E-01  1.43E-01  1.43E-01  1.16E-01  1.00E-01
   1450.   6.897    8.90E-02  1.17E-01  1.36E-01  1.43E-01  1.02E-01  6.70E-02
   1470.   6.803    8.60E-02  1.12E-01  1.30E-01  1.37E-01  9.40E-02  5.80E-02
   1490.   6.711    8.40E-02  1.08E-01  1.25E-01  1.30E-01  8.80E-02  5.20E-02
   1500.   6.667    8.30E-02  1.07E-01  1.22E-01  1.26E-01  8.70E-02  4.70E-02
   1510.   6.623    8.30E-02  1.06E-01  1.21E-01  1.22E-01  8.70E-02  4.50E-02
   1520.   6.579    8.30E-02  1.05E-01  1.20E-01  1.21E-01  8.80E-02  4.80E-02
   1530.   6.536    8.30E-02  1.04E-01  1.20E-01  1.22E-01  9.30E-02  5.20E-02
   1540.   6.494    8.50E-02  1.05E-01  1.20E-01  1.23E-01  9.80E-02  5.60E-02
   1560.   6.410    8.80E-02  1.11E-01  1.22E-01  1.25E-01  1.05E-01  6.50E-02
   1580.   6.329    9.60E-02  1.20E-01  1.28E-01  1.30E-01  1.11E-01  7.00E-02
   1600.   6.250    1.12E-01  1.35E-01  1.38E-01  1.38E-01  1.16E-01  6.90E-02
   1610.   6.211    1.25E-01  1.43E-01  1.48E-01  1.44E-01  1.20E-01  6.90E-02
   1620.   6.173    1.39E-01  1.54E-01  1.59E-01  1.52E-01  1.26E-01  6.80E-02
   1630.   6.135    1.56E-01  1.70E-01  1.72E-01  1.64E-01  1.33E-01  6.70E-02
   1640.   6.098    1.65E-01  1.74E-01  1.85E-01  1.75E-01  1.43E-01  6.50E-02
   1650.   6.061    1.59E-01  1.70E-01  1.87E-01  1.84E-01  1.53E-01  6.40E-02
   1660.   6.024    1.48E-01  1.65E-01  1.85E-01  1.91E-01  1.61E-01  6.20E-02
   1680.   5.952    1.30E-01  1.57E-01  1.81E-01  2.03E-01  1.69E-01  5.70E-02
   1700.   5.882    1.16E-01  1.51E-01  1.77E-01  2.15E-01  1.73E-01  5.40E-02
   1720.   5.814    1.05E-01  1.47E-01  1.76E-01  2.25E-01  1.73E-01  5.70E-02
   1740.   5.747    9.90E-02  1.43E-01  1.77E-01  2.20E-01  1.69E-01  5.80E-02
   1760.   5.682    9.40E-02  1.39E-01  1.81E-01  2.12E-01  1.62E-01  5.80E-02
   1770.   5.650    9.10E-02  1.36E-01  1.82E-01  2.09E-01  1.58E-01  5.70E-02
   1780.   5.618    8.80E-02  1.33E-01  1.73E-01  2.06E-01  1.54E-01  5.60E-02
   1800.   5.556    8.20E-02  1.26E-01  1.60E-01  1.94E-01  1.46E-01  5.50E-02
   1820.   5.495    7.60E-02  1.19E-01  1.51E-01  1.82E-01  1.40E-01  5.30E-02
   1840.   5.435    7.10E-02  1.14E-01  1.43E-01  1.71E-01  1.34E-01  5.20E-02
   1860.   5.376    6.80E-02  1.07E-01  1.36E-01  1.60E-01  1.27E-01  5.10E-02
   1880.   5.319    6.40E-02  1.03E-01  1.30E-01  1.51E-01  1.19E-01  5.10E-02
   1900.   5.263    6.10E-02  9.70E-02  1.23E-01  1.44E-01  1.13E-01  5.00E-02
   1930.   5.181    5.80E-02  9.00E-02  1.16E-01  1.35E-01  1.10E-01  5.20E-02
   1960.   5.102    5.50E-02  8.50E-02  1.08E-01  1.28E-01  1.08E-01  5.30E-02
   2020.   4.950    4.90E-02  7.60E-02  9.60E-02  1.18E-01  1.10E-01  5.80E-02
   2080.   4.808    4.60E-02  7.10E-02  8.90E-02  1.16E-01  1.16E-01  6.40E-02
   2120.   4.717    4.40E-02  6.80E-02  8.70E-02  1.17E-01  1.22E-01  6.90E-02
   2180.   4.587    4.30E-02  6.50E-02  8.60E-02  1.21E-01  1.31E-01  7.40E-02
   2240.   4.464    4.20E-02  6.30E-02  8.50E-02  1.19E-01  1.27E-01  7.50E-02
   2290.   4.367    4.00E-02  6.00E-02  8.10E-02  1.13E-01  1.22E-01  7.70E-02
   2330.   4.292    3.60E-02  5.70E-02  7.90E-02  1.09E-01  1.22E-01  9.20E-02
   2340.   4.274    3.60E-02  5.70E-02  7.90E-02  1.10E-01  1.22E-01  9.90E-02
   2370.   4.219    3.50E-02  5.80E-02  8.00E-02  1.17E-01  1.31E-01  1.16E-01
   2410.   4.149    3.40E-02  5.90E-02  8.00E-02  1.21E-01  1.42E-01  1.20E-01
   2450.   4.082    3.30E-02  5.80E-02  8.00E-02  1.24E-01  1.46E-01  1.18E-01
   2500.   4.000    3.20E-02  5.60E-02  8.00E-02  1.26E-01  1.49E-01  1.14E-01
   2530.   3.953    3.00E-02  5.60E-02  8.00E-02  1.27E-01  1.50E-01  1.13E-01
   2560.   3.906    3.00E-02  5.40E-02  7.80E-02  1.27E-01  1.52E-01  1.15E-01
   2590.   3.861    2.90E-02  5.30E-02  7.80E-02  1.27E-01  1.56E-01  1.18E-01
   2600.   3.846    2.80E-02  5.30E-02  7.70E-02  1.27E-01  1.57E-01  1.17E-01
   2620.   3.817    2.90E-02  5.20E-02  7.70E-02  1.28E-01  1.57E-01  1.16E-01
   2660.   3.759    2.90E-02  5.20E-02  7.60E-02  1.30E-01  1.56E-01  1.22E-01
   2710.   3.690    3.00E-02  5.40E-02  7.70E-02  1.36E-01  1.59E-01  1.37E-01
   2760.   3.623    3.10E-02  5.60E-02  8.10E-02  1.43E-01  1.68E-01  1.55E-01
   2810.   3.559    3.40E-02  5.90E-02  8.60E-02  1.53E-01  1.78E-01  1.73E-01
   2880.   3.472    4.00E-02  6.40E-02  9.20E-02  1.61E-01  1.89E-01  1.92E-01
   2930.   3.413    4.70E-02  7.00E-02  9.50E-02  1.59E-01  1.81E-01  1.97E-01
   2990.   3.344    5.80E-02  7.80E-02  9.90E-02  1.59E-01  1.71E-01  1.95E-01
   3050.   3.279    7.50E-02  9.00E-02  1.02E-01  1.50E-01  1.59E-01  1.82E-01
   3150.   3.175    1.18E-01  1.17E-01  1.13E-01  1.31E-01  1.31E-01  1.43E-01
   3250.   3.077    1.66E-01  1.49E-01  1.30E-01  1.09E-01  9.80E-02  9.20E-02
   3310.   3.021    1.93E-01  1.45E-01  1.41E-01  9.90E-02  7.90E-02  6.40E-02
   3350.   2.985    2.07E-01  1.75E-01  1.48E-01  9.30E-02  6.70E-02  4.80E-02
   3400.   2.941    2.18E-01  1.84E-01  1.54E-01  8.60E-02  5.30E-02  3.00E-02
   3430.   2.915    2.19E-01  1.85E-01  1.53E-01  8.20E-02  4.50E-02  2.20E-02
   3470.   2.882    2.06E-01  1.76E-01  1.47E-01  7.30E-02  3.40E-02  1.20E-02
   3520.   2.841    1.74E-01  1.50E-01  1.25E-01  5.60E-02  2.20E-02  0.00E+00
   3530.   2.833    1.66E-01  1.44E-01  1.19E-01  5.20E-02  1.90E-02  0.00E+00
   3610.   2.770    8.90E-02  7.70E-02  6.20E-02  2.30E-02  0.00E+00  0.00E+00
   3620.   2.762    7.90E-02  6.80E-02  5.40E-02  1.90E-02  0.00E+00  0.00E+00
   3670.   2.725    3.10E-02  2.50E-02  2.20E-02  6.00E-03  0.00E+00  0.00E+00
   3720.   2.688    0.00E+00  0.00E+00  0.00E+00  0.00E+00  0.00E+00  0.00E+00
   3800.   2.632    0.00E+00  0.00E+00  0.00E+00  0.00E+00  0.00E+00  0.00E+00
   3900.   2.564    0.00E+00  0.00E+00  0.00E+00  0.00E+00  0.00E+00  0.00E+00
   4000.   2.500    0.00E+00  0.00E+00  0.00E+00  3.76E-03  3.38E-03  2.11E-03
   4100.   2.439    0.00E+00  0.00E+00  0.00E+00  2.97E-03  2.79E-03  1.86E-03
   4200.   2.381    0.00E+00  0.00E+00  0.00E+00  2.41E-03  2.43E-03  1.71E-03
   4300.   2.326    0.00E+00  0.00E+00  0.00E+00  2.09E-03  2.13E-03  1.62E-03
   4400.   2.273    0.00E+00  0.00E+00  0.00E+00  1.86E-03  1.94E-03  1.41E-03
   4500.   2.222    0.00E+00  0.00E+00  0.00E+00  1.67E-03  1.69E-03  1.29E-03
   4600.   2.174    0.00E+00  0.00E+00  0.00E+00  1.54E-03  1.56E-03  1.15E-03
   4700.   2.128    0.00E+00  0.00E+00  0.00E+00  1.43E-03  1.44E-03  1.02E-03
   4800.   2.083    0.00E+00  0.00E+00  0.00E+00  1.35E-03  1.34E-03  9.47E-04
   4900.   2.041    0.00E+00  0.00E+00  0.00E+00  1.30E-03  1.28E-03  8.93E-04
   5000.   2.000    0.00E+00  0.00E+00  0.00E+00  1.26E-03  1.19E-03  8.37E-04
   5100.   1.961    0.00E+00  0.00E+00  0.00E+00  1.24E-03  1.10E-03  7.41E-04
   5200.   1.923    0.00E+00  0.00E+00  0.00E+00  1.11E-03  9.61E-04  6.58E-04
   5300.   1.887    0.00E+00  0.00E+00  0.00E+00  7.96E-04  7.58E-04  5.86E-04
   5400.   1.852    0.00E+00  0.00E+00  0.00E+00  5.95E-04  6.26E-04  5.33E-04
   5500.   1.818    2.50E-04  0.00E+00  0.00E+00  5.37E-04  5.66E-04  4.93E-04
   5600.   1.786    2.37E-04  2.87E-04  0.00E+00  4.86E-04  4.99E-04  4.52E-04
   5700.   1.754    2.09E-04  2.68E-04  3.00E-04  4.24E-04  4.44E-04  4.02E-04
   5800.   1.724    1.87E-04  2.37E-04  2.65E-04  3.61E-04  3.76E-04  3.48E-04
   5900.   1.695    1.71E-04  2.16E-04  2.37E-04  3.14E-04  3.21E-04  2.99E-04
   6000.   1.667    1.58E-04  1.98E-04  2.18E-04  2.72E-04  2.76E-04  2.55E-04
   6100.   1.639    1.50E-04  1.85E-04  2.01E-04  2.34E-04  2.32E-04  2.14E-04
   6200.   1.613    1.48E-04  1.73E-04  1.87E-04  2.02E-04  1.95E-04  1.81E-04
   6300.   1.587    1.49E-04  1.69E-04  1.76E-04  1.76E-04  1.67E-04  1.52E-04
   6400.   1.562    1.55E-04  1.72E-04  1.68E-04  1.55E-04  1.41E-04  1.24E-04
   6500.   1.538    1.69E-04  1.80E-04  1.74E-04  1.38E-04  1.22E-04  9.88E-05
   6600.   1.515    1.87E-04  1.94E-04  1.82E-04  1.25E-04  1.09E-04  7.85E-05
   6700.   1.493    2.17E-04  2.14E-04  1.91E-04  1.17E-04  9.41E-05  6.21E-05
   6800.   1.471    2.43E-04  2.28E-04  1.99E-04  1.10E-04  8.13E-05  4.53E-05
   6900.   1.449    2.54E-04  2.19E-04  1.83E-04  1.02E-04  6.95E-05  3.40E-05
   7000.   1.429    2.36E-04  1.72E-04  1.47E-04  8.78E-05  5.62E-05  2.54E-05
   7100.   1.408    1.60E-04  1.04E-04  8.80E-05  6.16E-05  3.80E-05  1.98E-05
   7200.   1.389    7.52E-05  6.61E-05  5.35E-05  3.89E-05  2.61E-05  1.65E-05
   7300.   1.370    4.88E-05  4.41E-05  3.80E-05  2.59E-05  2.01E-05  1.38E-05
   7400.   1.351    3.37E-05  3.06E-05  2.69E-05  1.98E-05  1.53E-05  1.15E-05
   7500.   1.333    2.24E-05  2.10E-05  1.97E-05  1.59E-05  1.36E-05  9.44E-06
   7600.   1.316    1.66E-05  1.60E-05  1.54E-05  1.27E-05  1.12E-05  7.85E-06
   7700.   1.299    1.33E-05  1.29E-05  1.26E-05  1.05E-05  9.50E-06  6.67E-06
   7800.   1.282    1.13E-05  1.10E-05  1.07E-05  8.93E-06  8.06E-06  5.61E-06
   7900.   1.266    1.03E-05  9.74E-06  9.48E-06  7.75E-06  6.88E-06  4.68E-06
   8000.   1.250    1.00E-05  9.23E-06  8.85E-06  6.94E-06  6.00E-06  3.95E-06
   8200.   1.220    1.02E-05  8.98E-06  8.22E-06  5.63E-06  4.72E-06  2.91E-06
   8400.   1.190    9.95E-06  8.83E-06  7.90E-06  4.95E-06  3.85E-06  2.29E-06
   8600.   1.163    8.41E-06  8.02E-06  7.25E-06  4.05E-06  3.01E-06  1.94E-06
   8800.   1.136    4.46E-06  4.04E-06  3.73E-06  2.46E-06  2.17E-06  1.69E-06
   9000.   1.111    1.92E-06  1.85E-06  1.87E-06  1.84E-06  1.77E-06  1.51E-06
   9200.   1.087    1.44E-06  1.43E-06  1.45E-06  1.60E-06  1.60E-06  1.44E-06
   9400.   1.064    1.30E-06  1.29E-06  1.30E-06  1.50E-06  1.52E-06  1.40E-06
   9600.   1.042    1.44E-06  1.39E-06  1.37E-06  1.48E-06  1.46E-06  1.32E-06
   9800.   1.020    2.01E-06  1.75E-06  1.62E-06  1.52E-06  1.37E-06  1.11E-06
  10000.   1.000    2.75E-06  2.36E-06  2.09E-06  1.53E-06  1.19E-06  8.67E-07
  10200.    .980    3.23E-06  2.86E-06  2.40E-06  1.41E-06  9.67E-07  6.20E-07
  10400.    .962    2.91E-06  2.51E-06  1.97E-06  1.03E-06  7.51E-07  4.53E-07
  10600.    .943    1.39E-06  1.24E-06  9.38E-07  6.05E-07  4.97E-07  3.27E-07
  10800.    .926    7.88E-07  6.90E-07  5.25E-07  3.62E-07  3.49E-07  2.39E-07
  11000.    .909    5.20E-07  4.98E-07  3.53E-07  2.84E-07  2.73E-07  1.97E-07
  11200.    .893    4.01E-07  3.79E-07  2.65E-07  2.33E-07  2.35E-07  1.71E-07
  11400.    .877    3.21E-07  2.92E-07  2.24E-07  2.02E-07  1.70E-07  1.52E-07
  11600.    .862    2.72E-07  2.50E-07  2.07E-07  1.83E-07  1.48E-07  1.34E-07
  11800.    .847    2.44E-07  2.27E-07  1.87E-07  1.58E-07  1.29E-07  1.17E-07
  12000.    .833    1.92E-07  1.73E-07  1.42E-07  1.24E-07  1.07E-07  9.95E-08
  12200.    .820    1.25E-07  1.14E-07  1.04E-07  9.98E-08  8.94E-08  8.35E-08
  12400.    .806    1.17E-07  1.01E-07  9.18E-08  8.79E-08  7.51E-08  7.06E-08
  12600.    .794    1.24E-07  1.07E-07  9.28E-08  8.46E-08  6.57E-08  5.87E-08
  12800.    .781    1.32E-07  1.14E-07  9.51E-08  8.39E-08  6.09E-08  4.85E-08
  13000.    .769    1.43E-07  1.21E-07  9.92E-08  8.20E-08  4.90E-08  3.92E-08
  13200.    .758    1.55E-07  1.25E-07  1.04E-07  7.84E-08  3.92E-08  3.13E-08
  13400.    .746    1.45E-07  1.18E-07  9.86E-08  6.83E-08  3.09E-08  2.26E-08
  13600.    .735    1.09E-07  8.89E-08  7.02E-08  4.80E-08  2.34E-08  0.00E+00
  13800.    .725    6.86E-08  5.94E-08  4.61E-08  3.58E-08  1.73E-08  0.00E+00
  14000.    .714    4.72E-08  3.87E-08  3.13E-08  2.79E-08  1.14E-08  0.00E+00
  14250.    .702    3.02E-08  2.46E-08  2.07E-08  2.07E-08  0.00E+00  0.00E+00
  18000.    .556    0.00E+00  0.00E+00  0.00E+00  0.00E+00  0.00E+00  0.00E+00
  22250.    .449    0.00E+00  0.00E+00  0.00E+00  0.00E+00  0.00E+00  0.00E+00
  22450.    .445    0.00E+00  0.00E+00  0.00E+00  0.00E+00  0.00E+00  0.00E+00
  27800.    .360    0.00E+00  0.00E+00  0.00E+00  0.00E+00  0.00E+00  0.00E+00
